OOIBase32 Version 2.0.6.5 Data File
++++++++++++++++++++++++++++++++++++
Date: 03-07-2023, 14:34:32
User: Valued Ocean Optics Customer
Spectrometer Serial Number: USB2E099
Spectrometer Channel: Master
Integration Time (msec): 30
Spectra Averaged: 10
Boxcar Smoothing: 0
Correct for Electrical Dark: Disabled
Time Normalized: Disabled
Dual-beam Reference: Disabled
Reference Channel: Master
Temperature: Not acquired
Spectrometer Type: S2000
ADC Type: USB2000
Number of Pixels in File: 2048
Graph Title: 
>>>>>Begin Spectral Data<<<<<
188.69	0.000
189.07	151.400
189.44	152.700
189.82	153.500
190.19	154.600
190.56	156.000
190.94	157.800
191.31	158.400
191.68	159.500
192.06	160.400
192.43	160.700
192.80	160.200
193.18	163.600
193.55	162.300
193.92	162.400
194.30	161.800
194.67	160.600
195.04	161.600
195.42	162.900
195.79	161.400
196.16	161.000
196.54	162.600
196.91	159.900
197.28	160.500
197.66	160.000
198.03	160.600
198.40	162.100
198.78	161.500
199.15	160.200
199.52	161.200
199.89	162.000
200.27	160.900
200.64	161.300
201.01	161.400
201.39	162.000
201.76	163.000
202.13	161.500
202.50	162.100
202.88	162.100
203.25	161.500
203.62	163.700
203.99	162.700
204.37	161.900
204.74	162.200
205.11	162.200
205.48	160.800
205.85	162.500
206.23	163.900
206.60	162.300
206.97	162.200
207.34	162.700
207.72	162.300
208.09	164.000
208.46	163.600
208.83	163.300
209.20	162.000
209.58	162.000
209.95	162.800
210.32	163.600
210.69	164.900
211.06	163.500
211.44	164.500
211.81	163.500
212.18	162.200
212.55	162.800
212.92	162.900
213.29	161.800
213.67	162.400
214.04	163.900
214.41	163.800
214.78	164.300
215.15	164.400
215.52	164.000
215.89	164.400
216.27	163.200
216.64	163.100
217.01	165.000
217.38	163.700
217.75	164.000
218.12	164.800
218.49	164.800
218.86	164.600
219.24	164.500
219.61	163.400
219.98	163.300
220.35	163.100
220.72	164.200
221.09	162.600
221.46	163.900
221.83	164.100
222.20	164.300
222.57	163.900
222.94	162.600
223.32	163.300
223.69	165.300
224.06	165.200
224.43	164.500
224.80	163.900
225.17	164.000
225.54	165.700
225.91	163.900
226.28	163.800
226.65	163.800
227.02	164.200
227.39	164.800
227.76	164.100
228.13	164.400
228.50	164.700
228.87	164.800
229.24	163.200
229.61	163.700
229.98	163.600
230.35	163.900
230.72	163.400
231.09	165.700
231.46	164.600
231.83	165.400
232.20	165.200
232.57	166.100
232.94	163.500
233.31	165.300
233.68	166.700
234.05	165.900
234.42	166.700
234.79	165.600
235.16	165.100
235.53	165.100
235.90	163.300
236.27	165.500
236.64	163.900
237.01	165.000
237.38	166.800
237.75	166.400
238.12	165.200
238.49	165.800
238.86	164.900
239.22	165.800
239.59	167.100
239.96	164.800
240.33	165.600
240.70	164.800
241.07	165.300
241.44	165.200
241.81	165.200
242.18	164.700
242.55	164.500
242.92	164.900
243.28	164.300
243.65	165.400
244.02	164.800
244.39	165.700
244.76	165.600
245.13	165.100
245.50	165.200
245.87	167.200
246.23	166.200
246.60	166.200
246.97	166.200
247.34	166.700
247.71	166.300
248.08	167.700
248.45	165.400
248.81	166.600
249.18	164.800
249.55	165.000
249.92	167.200
250.29	164.400
250.66	165.000
251.02	166.200
251.39	165.400
251.76	168.200
252.13	165.600
252.50	166.500
252.86	165.600
253.23	168.200
253.60	164.400
253.97	166.100
254.34	167.600
254.70	165.800
255.07	167.800
255.44	167.300
255.81	166.600
256.17	166.300
256.54	166.200
256.91	167.600
257.28	166.700
257.65	164.700
258.01	166.200
258.38	167.000
258.75	165.900
259.12	165.300
259.48	165.600
259.85	166.100
260.22	165.200
260.58	167.700
260.95	167.300
261.32	165.000
261.69	165.800
262.05	166.200
262.42	166.500
262.79	165.800
263.15	165.400
263.52	165.800
263.89	165.900
264.26	166.200
264.62	166.200
264.99	166.000
265.36	167.100
265.72	165.600
266.09	166.200
266.46	166.900
266.82	164.900
267.19	167.000
267.56	167.300
267.92	165.200
268.29	168.100
268.66	167.000
269.02	165.400
269.39	168.300
269.76	166.700
270.12	165.600
270.49	166.000
270.85	166.100
271.22	166.800
271.59	165.600
271.95	164.600
272.32	163.900
272.69	166.400
273.05	166.700
273.42	165.600
273.78	166.400
274.15	167.700
274.52	165.800
274.88	165.500
275.25	166.300
275.61	165.700
275.98	166.400
276.35	166.200
276.71	168.100
277.08	166.800
277.44	165.900
277.81	166.500
278.17	166.200
278.54	168.400
278.91	165.500
279.27	165.800
279.64	166.300
280.00	165.800
280.37	167.300
280.73	165.700
281.10	166.900
281.46	165.600
281.83	166.000
282.19	166.900
282.56	166.100
282.92	166.400
283.29	168.300
283.65	166.600
284.02	166.000
284.38	166.400
284.75	166.100
285.11	167.400
285.48	166.000
285.84	165.400
286.21	169.300
286.57	165.900
286.94	165.400
287.30	165.800
287.67	165.900
288.03	166.300
288.40	165.800
288.76	165.700
289.13	166.900
289.49	165.600
289.86	166.300
290.22	166.700
290.58	166.400
290.95	166.500
291.31	167.200
291.68	168.500
292.04	166.800
292.41	166.600
292.77	166.800
293.14	167.200
293.50	165.200
293.86	166.900
294.23	165.100
294.59	166.200
294.96	168.400
295.32	167.000
295.68	166.400
296.05	167.200
296.41	166.800
296.78	165.200
297.14	166.100
297.50	165.900
297.87	165.900
298.23	165.800
298.59	166.100
298.96	168.000
299.32	164.800
299.68	165.200
300.05	165.700
300.41	165.500
300.78	167.400
301.14	165.100
301.50	166.000
301.87	165.400
302.23	166.500
302.59	165.800
302.96	163.900
303.32	165.900
303.68	165.700
304.04	166.300
304.41	165.900
304.77	165.400
305.13	166.800
305.50	166.900
305.86	166.200
306.22	166.800
306.59	165.200
306.95	164.800
307.31	165.500
307.67	167.400
308.04	164.900
308.40	165.100
308.76	166.500
309.13	166.100
309.49	166.900
309.85	166.500
310.21	166.100
310.58	165.600
310.94	165.200
311.30	166.500
311.66	166.300
312.03	165.800
312.39	165.400
312.75	167.100
313.11	165.700
313.47	166.200
313.84	167.400
314.20	165.300
314.56	165.100
314.92	166.200
315.28	165.500
315.65	165.300
316.01	166.600
316.37	164.900
316.73	166.600
317.09	167.200
317.46	167.700
317.82	165.600
318.18	166.900
318.54	167.700
318.90	166.300
319.26	167.300
319.63	166.700
319.99	165.200
320.35	166.700
320.71	166.600
321.07	165.900
321.43	165.700
321.80	165.800
322.16	168.300
322.52	165.700
322.88	165.700
323.24	167.300
323.60	167.100
323.96	165.900
324.32	165.600
324.69	164.800
325.05	166.300
325.41	165.100
325.77	167.200
326.13	166.800
326.49	167.100
326.85	165.900
327.21	165.700
327.57	166.900
327.93	165.000
328.29	166.300
328.66	165.400
329.02	165.600
329.38	166.600
329.74	165.500
330.10	165.400
330.46	164.400
330.82	165.200
331.18	164.500
331.54	165.600
331.90	164.900
332.26	166.900
332.62	166.300
332.98	165.700
333.34	166.300
333.70	165.800
334.06	165.200
334.42	166.700
334.78	164.900
335.14	166.100
335.50	167.700
335.86	165.400
336.22	165.900
336.58	166.000
336.94	164.800
337.30	168.800
337.66	167.100
338.02	165.600
338.38	166.700
338.74	165.900
339.10	166.200
339.46	165.900
339.82	165.400
340.18	167.500
340.54	165.400
340.90	167.400
341.26	165.300
341.62	164.800
341.98	165.300
342.34	167.500
342.70	166.400
343.05	166.100
343.41	165.200
343.77	165.300
344.13	165.900
344.49	164.400
344.85	165.700
345.21	165.500
345.57	166.600
345.93	164.700
346.29	166.400
346.65	165.700
347.00	167.400
347.36	167.600
347.72	165.000
348.08	164.600
348.44	165.300
348.80	165.400
349.16	167.200
349.52	165.900
349.87	166.200
350.23	167.900
350.59	165.100
350.95	164.200
351.31	164.300
351.67	165.200
352.03	165.000
352.38	165.700
352.74	166.300
353.10	164.700
353.46	165.400
353.82	165.700
354.17	166.900
354.53	168.700
354.89	169.100
355.25	168.900
355.61	168.600
355.97	169.900
356.32	170.400
356.68	169.700
357.04	168.800
357.40	168.300
357.75	165.300
358.11	165.000
358.47	166.900
358.83	167.100
359.19	166.200
359.54	167.800
359.90	166.600
360.26	166.800
360.62	167.400
360.97	167.700
361.33	166.400
361.69	167.800
362.05	166.400
362.40	167.500
362.76	167.000
363.12	167.700
363.47	168.700
363.83	165.700
364.19	167.000
364.55	167.400
364.90	167.200
365.26	168.500
365.62	166.300
365.97	166.500
366.33	165.700
366.69	166.500
367.04	167.000
367.40	165.600
367.76	166.200
368.11	165.800
368.47	167.500
368.83	166.900
369.18	165.000
369.54	165.900
369.90	164.600
370.25	165.400
370.61	165.500
370.97	165.100
371.32	163.700
371.68	166.000
372.04	164.600
372.39	164.400
372.75	164.500
373.11	164.500
373.46	165.700
373.82	163.700
374.17	164.700
374.53	166.000
374.89	167.500
375.24	164.800
375.60	165.800
375.95	164.900
376.31	165.800
376.67	165.300
377.02	165.500
377.38	167.900
377.73	166.300
378.09	166.900
378.44	166.700
378.80	165.600
379.16	164.600
379.51	164.000
379.87	165.300
380.22	164.700
380.58	164.900
380.93	165.100
381.29	166.100
381.64	165.700
382.00	166.200
382.35	167.000
382.71	168.700
383.06	170.200
383.42	166.900
383.77	167.600
384.13	169.100
384.49	165.900
384.84	166.600
385.20	166.800
385.55	166.000
385.90	165.700
386.26	165.300
386.61	164.900
386.97	164.900
387.32	163.700
387.68	165.600
388.03	166.000
388.39	165.000
388.74	166.800
389.10	165.100
389.45	166.500
389.81	167.200
390.16	166.600
390.52	167.100
390.87	165.100
391.22	167.400
391.58	165.000
391.93	164.300
392.29	165.700
392.64	165.400
393.00	168.900
393.35	175.200
393.70	181.300
394.06	187.000
394.41	188.600
394.77	184.100
395.12	182.600
395.47	178.500
395.83	177.400
396.18	175.600
396.53	173.000
396.89	172.500
397.24	168.700
397.60	170.600
397.95	168.000
398.30	167.300
398.66	166.400
399.01	165.500
399.36	166.200
399.72	164.600
400.07	165.100
400.42	165.500
400.78	164.400
401.13	165.200
401.48	167.100
401.84	164.700
402.19	165.800
402.54	170.000
402.90	175.900
403.25	181.700
403.60	189.900
403.96	195.100
404.31	195.300
404.66	189.200
405.01	184.900
405.37	180.900
405.72	178.800
406.07	176.900
406.43	173.700
406.78	172.100
407.13	169.700
407.48	167.100
407.84	167.100
408.19	167.100
408.54	166.700
408.89	166.200
409.25	166.000
409.60	166.000
409.95	165.900
410.30	166.100
410.66	166.300
411.01	165.100
411.36	164.500
411.71	166.900
412.06	164.500
412.42	163.900
412.77	165.500
413.12	165.900
413.47	165.700
413.82	177.400
414.18	223.500
414.53	273.200
414.88	329.300
415.23	366.200
415.58	370.200
415.93	342.300
416.29	308.000
416.64	302.400
416.99	298.100
417.34	296.200
417.69	301.400
418.04	330.300
418.40	394.400
418.75	467.200
419.10	504.800
419.45	518.200
419.80	484.500
420.15	424.700
420.50	374.700
420.86	339.800
421.21	311.000
421.56	283.200
421.91	252.000
422.26	233.800
422.61	214.700
422.96	203.400
423.31	192.200
423.66	186.800
424.01	192.400
424.36	205.200
424.72	232.100
425.07	264.100
425.42	287.400
425.77	312.300
426.12	314.400
426.47	305.900
426.82	305.400
427.17	286.000
427.52	258.600
427.87	248.400
428.22	243.300
428.57	243.900
428.92	243.200
429.27	244.100
429.62	240.300
429.97	226.900
430.32	214.300
430.67	202.800
431.02	196.800
431.37	196.400
431.72	204.400
432.07	216.500
432.42	233.500
432.77	241.900
433.12	247.400
433.47	239.000
433.82	230.100
434.17	221.100
434.52	217.900
434.87	206.400
435.22	198.500
435.57	191.800
435.92	185.300
436.27	181.000
436.62	179.300
436.97	174.400
437.32	170.400
437.67	169.300
438.02	169.300
438.37	165.300
438.72	167.100
439.06	167.500
439.41	165.900
439.76	164.900
440.11	165.700
440.46	167.500
440.81	165.500
441.16	166.800
441.51	166.000
441.86	165.600
442.21	164.700
442.55	165.700
442.90	164.100
443.25	164.400
443.60	165.500
443.95	164.500
444.30	166.200
444.65	164.800
445.00	164.300
445.34	166.400
445.69	165.500
446.04	164.700
446.39	164.000
446.74	165.700
447.09	163.900
447.43	165.900
447.78	164.700
448.13	164.900
448.48	163.100
448.83	164.800
449.18	169.400
449.52	178.000
449.87	191.300
450.22	198.800
450.57	207.400
450.92	208.200
451.26	200.300
451.61	200.500
451.96	195.400
452.31	190.500
452.65	184.500
453.00	182.700
453.35	177.700
453.70	174.000
454.04	175.500
454.39	170.100
454.74	169.500
455.09	167.100
455.43	166.000
455.78	166.200
456.13	166.000
456.48	164.200
456.82	165.100
457.17	166.600
457.52	164.700
457.87	166.900
458.21	168.200
458.56	171.400
458.91	174.200
459.25	175.200
459.60	174.000
459.95	173.200
460.29	170.500
460.64	170.700
460.99	170.600
461.33	170.600
461.68	169.900
462.03	173.000
462.37	171.500
462.72	170.600
463.07	169.600
463.41	169.400
463.76	169.900
464.11	168.900
464.45	168.900
464.80	166.900
465.15	167.200
465.49	166.400
465.84	166.400
466.19	164.600
466.53	164.500
466.88	164.400
467.22	165.800
467.57	164.600
467.92	165.600
468.26	164.100
468.61	167.200
468.95	169.700
469.30	174.500
469.65	177.800
469.99	175.500
470.34	172.600
470.68	172.000
471.03	173.000
471.37	169.400
471.72	170.600
472.07	168.500
472.41	167.200
472.76	165.000
473.10	165.500
473.45	165.800
473.79	164.500
474.14	165.500
474.48	165.200
474.83	165.700
475.17	165.100
475.52	165.700
475.86	166.400
476.21	166.600
476.55	165.300
476.90	163.800
477.24	164.400
477.59	165.200
477.93	163.100
478.28	164.400
478.62	164.300
478.97	164.600
479.31	164.200
479.66	165.300
480.00	164.300
480.35	164.700
480.69	163.100
481.04	164.200
481.38	164.400
481.72	165.100
482.07	163.800
482.41	164.900
482.76	163.800
483.10	165.300
483.45	163.600
483.79	165.200
484.13	164.600
484.48	165.900
484.82	165.500
485.17	167.100
485.51	165.300
485.86	166.300
486.20	166.400
486.54	166.600
486.89	168.100
487.23	168.900
487.57	168.300
487.92	169.900
488.26	165.400
488.61	168.500
488.95	167.200
489.29	167.500
489.64	165.200
489.98	166.400
490.32	165.000
490.67	165.400
491.01	166.800
491.35	163.900
491.70	165.500
492.04	165.500
492.38	165.800
492.73	166.200
493.07	165.000
493.41	165.000
493.76	163.800
494.10	163.900
494.44	164.800
494.79	165.100
495.13	165.800
495.47	164.600
495.81	165.000
496.16	163.200
496.50	165.000
496.84	164.900
497.18	163.400
497.53	164.100
497.87	164.200
498.21	165.000
498.56	165.500
498.90	164.900
499.24	164.200
499.58	164.400
499.93	164.600
500.27	163.900
500.61	165.200
500.95	165.500
501.29	164.100
501.64	164.400
501.98	163.800
502.32	165.400
502.66	164.800
503.00	163.700
503.35	163.500
503.69	163.600
504.03	165.700
504.37	166.100
504.71	167.300
505.06	168.400
505.40	168.300
505.74	168.200
506.08	167.700
506.42	166.400
506.76	166.300
507.11	167.200
507.45	166.300
507.79	165.000
508.13	164.700
508.47	164.700
508.81	164.500
509.15	166.000
509.50	164.800
509.84	164.700
510.18	164.500
510.52	166.100
510.86	166.000
511.20	166.300
511.54	163.200
511.88	164.700
512.22	163.600
512.57	163.800
512.91	164.600
513.25	165.400
513.59	165.600
513.93	165.400
514.27	167.900
514.61	170.900
514.95	170.400
515.29	170.900
515.63	172.200
515.97	172.100
516.31	172.700
516.65	167.400
516.99	169.300
517.33	171.300
517.67	173.400
518.01	174.500
518.35	177.300
518.69	175.400
519.03	171.000
519.38	170.500
519.72	168.500
520.06	169.700
520.40	169.100
520.74	169.700
521.07	168.800
521.41	170.400
521.75	170.600
522.09	168.100
522.43	165.900
522.77	167.400
523.11	166.700
523.45	165.800
523.79	165.300
524.13	167.500
524.47	167.800
524.81	168.300
525.15	168.900
525.49	168.000
525.83	167.500
526.17	166.400
526.51	164.200
526.85	165.100
527.19	164.700
527.53	164.500
527.86	164.800
528.20	163.300
528.54	164.600
528.88	162.700
529.22	164.100
529.56	166.100
529.90	164.300
530.24	165.400
530.58	163.900
530.91	162.900
531.25	164.600
531.59	164.800
531.93	164.600
532.27	164.300
532.61	164.000
532.95	163.800
533.29	163.600
533.62	163.800
533.96	164.200
534.30	164.800
534.64	164.500
534.98	163.400
535.32	163.800
535.65	163.900
535.99	162.500
536.33	162.900
536.67	164.000
537.01	164.600
537.34	166.100
537.68	162.900
538.02	164.400
538.36	164.200
538.70	164.500
539.03	167.400
539.37	164.600
539.71	165.000
540.05	165.200
540.38	164.500
540.72	166.600
541.06	168.200
541.40	169.500
541.73	166.800
542.07	166.300
542.41	165.100
542.75	166.100
543.08	166.000
543.42	169.000
543.76	169.500
544.09	172.700
544.43	172.100
544.77	173.200
545.11	171.800
545.44	170.700
545.78	169.500
546.12	168.500
546.45	170.300
546.79	168.800
547.13	168.900
547.46	166.100
547.80	170.200
548.14	170.400
548.47	174.000
548.81	175.100
549.15	177.900
549.48	177.100
549.82	176.200
550.16	173.200
550.49	172.100
550.83	170.700
551.17	170.000
551.50	168.600
551.84	170.700
552.17	167.700
552.51	167.900
552.85	167.500
553.18	165.900
553.52	165.100
553.86	165.400
554.19	166.500
554.53	169.000
554.86	174.200
555.20	178.000
555.53	180.000
555.87	179.000
556.21	177.900
556.54	175.200
556.88	175.600
557.21	174.600
557.55	173.500
557.88	170.400
558.22	168.200
558.55	170.000
558.89	169.700
559.23	172.800
559.56	176.600
559.90	180.200
560.23	180.400
560.57	180.500
560.90	175.200
561.24	173.000
561.57	171.900
561.91	171.200
562.24	170.300
562.58	167.500
562.91	168.300
563.25	167.700
563.58	170.700
563.92	171.100
564.25	170.700
564.59	172.300
564.92	173.800
565.25	173.700
565.59	170.300
565.92	169.200
566.26	167.100
566.59	165.600
566.93	165.600
567.26	167.300
567.60	167.500
567.93	166.900
568.26	166.900
568.60	165.400
568.93	166.000
569.27	164.800
569.60	164.000
569.93	166.200
570.27	163.500
570.60	163.800
570.94	164.700
571.27	163.900
571.60	164.400
571.94	162.900
572.27	164.700
572.61	166.300
572.94	166.900
573.27	168.500
573.61	168.000
573.94	167.900
574.27	168.800
574.61	167.000
574.94	164.500
575.27	166.500
575.61	167.000
575.94	168.200
576.27	166.500
576.61	167.000
576.94	165.600
577.27	166.800
577.61	166.600
577.94	163.500
578.27	164.300
578.61	164.200
578.94	165.300
579.27	163.800
579.60	166.900
579.94	166.000
580.27	164.500
580.60	164.400
580.93	165.700
581.27	165.800
581.60	163.000
581.93	164.800
582.27	166.200
582.60	166.900
582.93	167.800
583.26	165.800
583.59	164.600
583.93	165.900
584.26	166.000
584.59	167.800
584.92	166.400
585.26	167.800
585.59	167.000
585.92	167.100
586.25	166.000
586.58	168.600
586.92	168.900
587.25	172.200
587.58	175.300
587.91	179.100
588.24	180.500
588.57	179.400
588.91	176.700
589.24	174.700
589.57	174.900
589.90	175.700
590.23	178.400
590.56	182.700
590.90	182.500
591.23	180.600
591.56	178.300
591.89	177.200
592.22	178.700
592.55	177.200
592.88	175.100
593.21	172.000
593.55	172.300
593.88	171.200
594.21	169.100
594.54	170.100
594.87	168.400
595.20	168.800
595.53	167.600
595.86	167.300
596.19	166.000
596.52	166.300
596.85	164.400
597.19	166.900
597.52	166.300
597.85	167.200
598.18	165.800
598.51	166.400
598.84	167.400
599.17	167.500
599.50	167.300
599.83	166.500
600.16	165.800
600.49	168.200
600.82	168.900
601.15	168.100
601.48	172.900
601.81	180.300
602.14	191.400
602.47	198.600
602.80	204.800
603.13	207.200
603.46	202.900
603.79	199.100
604.12	197.500
604.45	190.400
604.78	191.600
605.11	187.100
605.44	184.200
605.77	181.000
606.10	181.700
606.43	175.300
606.76	173.200
607.08	171.400
607.41	168.800
607.74	169.100
608.07	168.000
608.40	167.600
608.73	168.900
609.06	170.900
609.39	169.200
609.72	171.900
610.05	171.000
610.38	170.700
610.71	170.900
611.03	167.200
611.36	167.400
611.69	168.700
612.02	167.500
612.35	168.100
612.68	167.200
613.01	165.900
613.33	167.300
613.66	168.900
613.99	167.400
614.32	168.700
614.65	169.800
614.98	167.600
615.31	168.800
615.63	170.400
615.96	168.900
