OOIBase32 Version 2.0.6.5 Data File
++++++++++++++++++++++++++++++++++++
Date: 03-07-2023, 14:22:48
User: Valued Ocean Optics Customer
Spectrometer Serial Number: USB2E099
Spectrometer Channel: Master
Integration Time (msec): 10
Spectra Averaged: 10
Boxcar Smoothing: 0
Correct for Electrical Dark: Disabled
Time Normalized: Disabled
Dual-beam Reference: Disabled
Reference Channel: Master
Temperature: Not acquired
Spectrometer Type: S2000
ADC Type: USB2000
Number of Pixels in File: 2048
Graph Title: 
>>>>>Begin Spectral Data<<<<<
188.69	0.000
189.07	158.900
189.44	161.600
189.82	163.900
190.19	164.300
190.56	165.200
190.94	166.300
191.31	168.100
191.68	166.200
192.06	166.600
192.43	168.700
192.80	169.100
193.18	170.400
193.55	170.600
193.92	170.400
194.30	168.300
194.67	169.200
195.04	167.700
195.42	169.100
195.79	169.400
196.16	168.400
196.54	168.700
196.91	169.800
197.28	167.700
197.66	169.100
198.03	168.600
198.40	168.800
198.78	166.300
199.15	168.700
199.52	167.500
199.89	169.900
200.27	168.600
200.64	169.100
201.01	167.900
201.39	168.400
201.76	169.300
202.13	168.200
202.50	169.200
202.88	170.000
203.25	169.600
203.62	171.500
203.99	169.200
204.37	168.800
204.74	168.700
205.11	169.100
205.48	170.900
205.85	169.600
206.23	169.400
206.60	169.100
206.97	170.500
207.34	171.300
207.72	169.000
208.09	169.300
208.46	171.200
208.83	169.400
209.20	168.800
209.58	169.400
209.95	170.000
210.32	170.700
210.69	170.200
211.06	171.100
211.44	169.700
211.81	169.800
212.18	169.000
212.55	171.200
212.92	169.300
213.29	169.600
213.67	171.300
214.04	168.800
214.41	169.300
214.78	169.400
215.15	170.200
215.52	171.300
215.89	171.100
216.27	171.200
216.64	170.400
217.01	172.100
217.38	170.000
217.75	170.900
218.12	170.000
218.49	171.200
218.86	170.800
219.24	169.700
219.61	170.400
219.98	170.800
220.35	170.700
220.72	172.300
221.09	171.100
221.46	172.200
221.83	171.400
222.20	170.500
222.57	171.800
222.94	170.100
223.32	171.700
223.69	172.300
224.06	171.300
224.43	171.400
224.80	170.900
225.17	172.700
225.54	170.500
225.91	171.700
226.28	172.400
226.65	171.400
227.02	169.900
227.39	171.200
227.76	170.300
228.13	172.000
228.50	170.500
228.87	170.500
229.24	172.700
229.61	172.500
229.98	169.900
230.35	171.400
230.72	171.000
231.09	172.200
231.46	172.100
231.83	172.600
232.20	171.400
232.57	173.200
232.94	171.500
233.31	171.400
233.68	171.900
234.05	172.100
234.42	171.600
234.79	173.700
235.16	173.000
235.53	173.900
235.90	174.200
236.27	170.300
236.64	172.900
237.01	172.600
237.38	172.300
237.75	171.300
238.12	172.900
238.49	169.900
238.86	173.200
239.22	173.600
239.59	172.600
239.96	172.800
240.33	172.100
240.70	171.900
241.07	173.500
241.44	171.800
241.81	171.900
242.18	171.900
242.55	172.100
242.92	172.100
243.28	172.800
243.65	172.200
244.02	171.700
244.39	171.700
244.76	172.800
245.13	172.200
245.50	172.300
245.87	172.400
246.23	173.800
246.60	173.200
246.97	174.600
247.34	173.200
247.71	172.500
248.08	171.600
248.45	173.300
248.81	173.400
249.18	171.900
249.55	172.700
249.92	171.900
250.29	172.100
250.66	172.900
251.02	172.600
251.39	173.800
251.76	174.000
252.13	171.300
252.50	171.300
252.86	171.700
253.23	172.700
253.60	173.100
253.97	173.400
254.34	171.500
254.70	171.800
255.07	171.700
255.44	172.000
255.81	173.900
256.17	173.400
256.54	172.800
256.91	173.200
257.28	172.500
257.65	172.500
258.01	171.700
258.38	173.300
258.75	172.300
259.12	171.600
259.48	173.200
259.85	172.500
260.22	171.900
260.58	173.100
260.95	171.800
261.32	173.000
261.69	172.900
262.05	172.100
262.42	172.900
262.79	173.700
263.15	173.400
263.52	174.200
263.89	173.900
264.26	174.600
264.62	173.400
264.99	171.900
265.36	173.000
265.72	172.300
266.09	171.500
266.46	172.900
266.82	173.200
267.19	171.400
267.56	172.900
267.92	172.100
268.29	172.700
268.66	172.100
269.02	172.900
269.39	174.300
269.76	173.600
270.12	170.700
270.49	173.100
270.85	170.800
271.22	172.900
271.59	174.100
271.95	171.400
272.32	173.200
272.69	173.300
273.05	171.600
273.42	173.100
273.78	171.700
274.15	172.700
274.52	173.100
274.88	174.600
275.25	172.700
275.61	172.900
275.98	171.700
276.35	172.800
276.71	172.400
277.08	173.500
277.44	174.500
277.81	172.800
278.17	173.300
278.54	172.500
278.91	171.800
279.27	173.200
279.64	173.000
280.00	173.500
280.37	171.700
280.73	173.600
281.10	171.700
281.46	172.300
281.83	173.600
282.19	173.600
282.56	172.500
282.92	173.200
283.29	173.300
283.65	172.700
284.02	173.100
284.38	172.300
284.75	172.700
285.11	173.400
285.48	172.400
285.84	172.400
286.21	174.200
286.57	173.900
286.94	172.400
287.30	171.900
287.67	173.000
288.03	172.400
288.40	172.400
288.76	172.300
289.13	173.600
289.49	172.200
289.86	172.900
290.22	173.800
290.58	172.500
290.95	173.400
291.31	174.600
291.68	174.700
292.04	174.000
292.41	174.900
292.77	172.900
293.14	174.100
293.50	172.900
293.86	172.700
294.23	172.100
294.59	172.400
294.96	172.600
295.32	171.500
295.68	171.900
296.05	173.900
296.41	172.600
296.78	172.800
297.14	173.200
297.50	171.900
297.87	173.000
298.23	173.400
298.59	173.100
298.96	173.000
299.32	172.700
299.68	171.800
300.05	171.600
300.41	171.100
300.78	171.300
301.14	172.000
301.50	174.100
301.87	173.400
302.23	173.000
302.59	171.600
302.96	170.900
303.32	171.900
303.68	171.100
304.04	174.700
304.41	173.200
304.77	173.500
305.13	173.700
305.50	172.600
305.86	171.300
306.22	173.000
306.59	173.500
306.95	173.600
307.31	172.500
307.67	172.500
308.04	174.400
308.40	172.500
308.76	172.000
309.13	171.800
309.49	172.200
309.85	172.400
310.21	171.200
310.58	171.600
310.94	171.300
311.30	173.300
311.66	172.600
312.03	171.500
312.39	173.400
312.75	172.100
313.11	171.500
313.47	173.100
313.84	172.000
314.20	173.200
314.56	172.200
314.92	172.300
315.28	171.400
315.65	171.000
316.01	172.200
316.37	172.900
316.73	171.800
317.09	172.300
317.46	171.900
317.82	172.800
318.18	173.000
318.54	173.400
318.90	172.500
319.26	172.700
319.63	172.300
319.99	172.400
320.35	172.100
320.71	172.200
321.07	171.100
321.43	171.400
321.80	172.500
322.16	172.100
322.52	172.400
322.88	171.600
323.24	173.500
323.60	170.500
323.96	172.600
324.32	172.800
324.69	172.700
325.05	171.300
325.41	172.400
325.77	173.900
326.13	172.200
326.49	172.300
326.85	173.100
327.21	172.900
327.57	173.000
327.93	171.900
328.29	170.500
328.66	172.000
329.02	170.200
329.38	172.400
329.74	171.800
330.10	172.500
330.46	172.300
330.82	174.000
331.18	172.900
331.54	172.800
331.90	171.500
332.26	172.600
332.62	172.500
332.98	173.200
333.34	172.100
333.70	172.800
334.06	172.800
334.42	172.200
334.78	172.800
335.14	173.100
335.50	173.200
335.86	172.800
336.22	173.000
336.58	171.700
336.94	171.600
337.30	170.700
337.66	173.600
338.02	172.800
338.38	171.600
338.74	170.400
339.10	172.900
339.46	170.900
339.82	173.400
340.18	172.800
340.54	171.800
340.90	173.200
341.26	172.400
341.62	172.600
341.98	171.900
342.34	172.000
342.70	170.900
343.05	171.600
343.41	172.300
343.77	174.100
344.13	171.800
344.49	172.700
344.85	172.000
345.21	172.600
345.57	172.800
345.93	171.900
346.29	172.500
346.65	172.500
347.00	170.300
347.36	172.900
347.72	172.800
348.08	172.100
348.44	172.300
348.80	172.200
349.16	170.700
349.52	172.900
349.87	171.300
350.23	172.100
350.59	172.000
350.95	172.700
351.31	170.900
351.67	172.000
352.03	173.500
352.38	173.000
352.74	172.600
353.10	171.600
353.46	171.700
353.82	170.700
354.17	172.200
354.53	170.500
354.89	172.200
355.25	170.800
355.61	172.300
355.97	173.900
356.32	172.000
356.68	171.200
357.04	171.900
357.40	172.500
357.75	172.000
358.11	171.600
358.47	170.900
358.83	171.200
359.19	172.100
359.54	172.800
359.90	173.000
360.26	172.000
360.62	171.500
360.97	172.200
361.33	172.500
361.69	172.700
362.05	171.500
362.40	171.800
362.76	172.300
363.12	171.200
363.47	172.400
363.83	170.800
364.19	171.100
364.55	171.200
364.90	171.200
365.26	171.600
365.62	171.800
365.97	171.300
366.33	172.100
366.69	171.700
367.04	171.700
367.40	171.200
367.76	172.300
368.11	171.100
368.47	170.500
368.83	171.400
369.18	171.000
369.54	170.700
369.90	171.600
370.25	171.900
370.61	170.700
370.97	169.800
371.32	170.300
371.68	171.900
372.04	172.300
372.39	171.000
372.75	171.400
373.11	171.600
373.46	171.600
373.82	170.800
374.17	171.700
374.53	172.800
374.89	172.000
375.24	170.800
375.60	169.200
375.95	171.200
376.31	173.300
376.67	171.300
377.02	170.200
377.38	170.600
377.73	172.200
378.09	171.600
378.44	169.600
378.80	171.600
379.16	171.900
379.51	171.500
379.87	170.400
380.22	171.500
380.58	172.100
380.93	171.400
381.29	171.800
381.64	171.500
382.00	170.300
382.35	171.100
382.71	171.900
383.06	172.100
383.42	171.300
383.77	173.300
384.13	172.300
384.49	172.100
384.84	171.500
385.20	171.300
385.55	170.600
385.90	170.900
386.26	171.500
386.61	171.500
386.97	172.200
387.32	171.400
387.68	170.200
388.03	170.900
388.39	171.100
388.74	170.100
389.10	172.100
389.45	172.500
389.81	171.400
390.16	172.000
390.52	171.500
390.87	170.400
391.22	172.600
391.58	171.500
391.93	170.500
392.29	171.000
392.64	170.500
393.00	169.800
393.35	170.400
393.70	170.300
394.06	171.700
394.41	170.800
394.77	172.600
395.12	172.400
395.47	171.800
395.83	170.700
396.18	171.300
396.53	172.400
396.89	172.600
397.24	172.000
397.60	171.900
397.95	171.000
398.30	174.400
398.66	172.400
399.01	171.400
399.36	170.800
399.72	169.100
400.07	170.500
400.42	169.700
400.78	170.300
401.13	170.700
401.48	170.100
401.84	171.300
402.19	170.500
402.54	171.000
402.90	171.600
403.25	172.500
403.60	171.000
403.96	172.600
404.31	169.100
404.66	171.200
405.01	171.100
405.37	170.800
405.72	171.400
406.07	170.100
406.43	170.300
406.78	170.400
407.13	170.300
407.48	171.500
407.84	169.400
408.19	170.200
408.54	171.000
408.89	172.700
409.25	171.600
409.60	170.000
409.95	170.000
410.30	170.000
410.66	170.100
411.01	171.300
411.36	171.900
411.71	170.400
412.06	171.900
412.42	171.000
412.77	171.300
413.12	171.900
413.47	170.500
413.82	170.700
414.18	171.600
414.53	169.900
414.88	171.100
415.23	170.400
415.58	171.900
415.93	171.800
416.29	170.100
416.64	172.100
416.99	173.000
417.34	170.600
417.69	170.800
418.04	171.600
418.40	169.800
418.75	172.300
419.10	170.700
419.45	172.700
419.80	171.400
420.15	171.300
420.50	171.600
420.86	171.000
421.21	171.000
421.56	169.800
421.91	168.800
422.26	170.600
422.61	169.900
422.96	171.100
423.31	169.900
423.66	171.100
424.01	170.800
424.36	169.300
424.72	171.100
425.07	171.000
425.42	170.700
425.77	169.700
426.12	171.300
426.47	170.400
426.82	171.300
427.17	171.700
427.52	170.400
427.87	170.200
428.22	171.600
428.57	169.900
428.92	170.000
429.27	169.600
429.62	171.600
429.97	170.100
430.32	171.500
430.67	171.900
431.02	171.700
431.37	172.900
431.72	171.800
432.07	170.700
432.42	170.300
432.77	169.400
433.12	170.400
433.47	171.400
433.82	171.800
434.17	170.800
434.52	172.600
434.87	168.600
435.22	170.300
435.57	169.200
435.92	170.600
436.27	170.900
436.62	169.900
436.97	170.600
437.32	171.000
437.67	170.800
438.02	171.800
438.37	171.500
438.72	169.700
439.06	170.000
439.41	171.300
439.76	170.700
440.11	171.300
440.46	171.900
440.81	170.300
441.16	170.900
441.51	169.100
441.86	170.700
442.21	170.400
442.55	171.300
442.90	172.900
443.25	171.500
443.60	170.300
443.95	171.900
444.30	170.000
444.65	170.100
445.00	170.400
445.34	171.000
445.69	169.800
446.04	169.700
446.39	169.700
446.74	171.300
447.09	170.200
447.43	169.400
447.78	170.300
448.13	171.100
448.48	172.600
448.83	170.100
449.18	169.700
449.52	172.400
449.87	170.600
450.22	170.600
450.57	171.700
450.92	169.800
451.26	169.700
451.61	171.600
451.96	171.500
452.31	172.000
452.65	170.000
453.00	171.000
453.35	171.600
453.70	170.900
454.04	170.600
454.39	170.600
454.74	172.000
455.09	171.500
455.43	169.300
455.78	170.900
456.13	171.400
456.48	171.100
456.82	171.600
457.17	170.800
457.52	170.300
457.87	171.100
458.21	170.800
458.56	170.400
458.91	171.600
459.25	170.700
459.60	172.200
459.95	171.200
460.29	171.100
460.64	170.500
460.99	170.600
461.33	170.200
461.68	169.600
462.03	171.200
462.37	169.500
462.72	170.500
463.07	171.000
463.41	170.400
463.76	171.100
464.11	170.800
464.45	171.200
464.80	170.000
465.15	169.200
465.49	170.100
465.84	170.600
466.19	170.700
466.53	171.800
466.88	169.000
467.22	170.500
467.57	170.400
467.92	169.400
468.26	169.400
468.61	169.400
468.95	170.000
469.30	171.200
469.65	169.100
469.99	169.600
470.34	170.500
470.68	171.000
471.03	170.700
471.37	170.700
471.72	171.400
472.07	169.700
472.41	169.700
472.76	170.000
473.10	170.900
473.45	170.300
473.79	171.100
474.14	169.900
474.48	169.900
474.83	171.100
475.17	169.700
475.52	170.200
475.86	170.300
476.21	170.600
476.55	168.800
476.90	170.400
477.24	170.800
477.59	169.400
477.93	170.100
478.28	170.800
478.62	169.800
478.97	170.100
479.31	170.100
479.66	172.400
480.00	170.600
480.35	171.700
480.69	170.800
481.04	169.000
481.38	170.400
481.72	170.700
482.07	171.500
482.41	169.400
482.76	172.000
483.10	170.300
483.45	170.100
483.79	171.200
484.13	171.200
484.48	169.500
484.82	169.500
485.17	170.600
485.51	169.700
485.86	171.300
486.20	170.500
486.54	172.600
486.89	170.500
487.23	170.900
487.57	170.800
487.92	170.300
488.26	169.700
488.61	172.100
488.95	169.800
489.29	171.000
489.64	169.800
489.98	168.700
490.32	169.600
490.67	170.600
491.01	170.600
491.35	169.900
491.70	171.000
492.04	171.100
492.38	169.600
492.73	170.800
493.07	170.300
493.41	171.100
493.76	171.200
494.10	169.700
494.44	169.900
494.79	171.100
495.13	168.600
495.47	170.200
495.81	169.700
496.16	169.500
496.50	170.200
496.84	170.800
497.18	170.000
497.53	168.700
497.87	168.300
498.21	171.700
498.56	170.300
498.90	171.100
499.24	169.700
499.58	170.100
499.93	170.000
500.27	170.100
500.61	170.800
500.95	171.600
501.29	170.800
501.64	169.800
501.98	169.600
502.32	171.200
502.66	171.100
503.00	170.500
503.35	171.200
503.69	171.100
504.03	171.000
504.37	171.100
504.71	170.000
505.06	170.200
505.40	170.000
505.74	170.600
506.08	168.700
506.42	172.100
506.76	169.800
507.11	170.800
507.45	169.500
507.79	170.300
508.13	169.600
508.47	169.400
508.81	168.100
509.15	169.700
509.50	170.800
509.84	170.800
510.18	168.600
510.52	169.100
510.86	170.000
511.20	169.800
511.54	168.700
511.88	170.800
512.22	170.600
512.57	170.700
512.91	171.200
513.25	168.800
513.59	169.600
513.93	169.000
514.27	169.400
514.61	171.300
514.95	170.800
515.29	169.900
515.63	171.600
515.97	169.300
516.31	171.300
516.65	170.000
516.99	169.600
517.33	168.000
517.67	170.000
518.01	170.900
518.35	170.200
518.69	170.600
519.03	168.900
519.38	171.400
519.72	168.600
520.06	169.500
520.40	171.900
520.74	169.100
521.07	170.000
521.41	170.400
521.75	171.600
522.09	168.800
522.43	171.200
522.77	169.900
523.11	170.800
523.45	170.200
523.79	168.100
524.13	170.300
524.47	170.100
524.81	168.500
525.15	168.800
525.49	172.000
525.83	170.700
526.17	169.600
526.51	169.400
526.85	170.400
527.19	169.800
527.53	169.500
527.86	170.800
528.20	170.700
528.54	170.900
528.88	168.700
529.22	169.700
529.56	170.100
529.90	169.300
530.24	170.700
530.58	169.600
530.91	170.500
531.25	170.900
531.59	170.100
531.93	171.300
532.27	169.900
532.61	170.900
532.95	169.200
533.29	171.200
533.62	170.200
533.96	170.000
534.30	168.900
534.64	169.600
534.98	168.900
535.32	169.500
535.65	170.100
535.99	168.700
536.33	168.300
536.67	169.100
537.01	171.100
537.34	170.600
537.68	168.700
538.02	169.200
538.36	169.500
538.70	169.700
539.03	172.100
539.37	169.900
539.71	170.700
540.05	169.800
540.38	171.500
540.72	170.300
541.06	169.100
541.40	169.400
541.73	170.300
542.07	170.300
542.41	170.700
542.75	169.800
543.08	170.500
543.42	170.000
543.76	170.000
544.09	169.300
544.43	170.000
544.77	168.600
545.11	171.200
545.44	170.600
545.78	170.900
546.12	170.100
546.45	170.200
546.79	169.800
547.13	171.700
547.46	170.500
547.80	169.300
548.14	170.900
548.47	170.900
548.81	170.800
549.15	170.300
549.48	168.800
549.82	171.200
550.16	171.600
550.49	170.800
550.83	171.700
551.17	170.500
551.50	168.600
551.84	170.500
552.17	172.000
552.51	170.300
552.85	171.600
553.18	170.200
553.52	170.000
553.86	170.800
554.19	168.700
554.53	170.300
554.86	170.300
555.20	169.200
555.53	169.900
555.87	170.700
556.21	169.200
556.54	170.900
556.88	171.600
557.21	170.300
557.55	170.000
557.88	171.100
558.22	170.600
558.55	169.100
558.89	170.200
559.23	171.200
559.56	169.200
559.90	172.200
560.23	170.200
560.57	170.200
560.90	170.700
561.24	170.100
561.57	169.100
561.91	170.300
562.24	171.900
562.58	170.000
562.91	169.500
563.25	169.900
563.58	169.600
563.92	170.100
564.25	171.000
564.59	171.000
564.92	169.600
565.25	170.200
565.59	168.800
565.92	170.100
566.26	169.400
566.59	171.200
566.93	168.500
567.26	171.100
567.60	170.200
567.93	170.400
568.26	170.500
568.60	169.700
568.93	169.000
569.27	169.400
569.60	166.800
569.93	169.900
570.27	168.000
570.60	170.000
570.94	170.200
571.27	170.800
571.60	170.300
571.94	170.100
572.27	170.200
572.61	170.600
572.94	170.400
573.27	169.900
573.61	169.900
573.94	169.700
574.27	170.100
574.61	169.800
574.94	168.400
575.27	169.200
575.61	168.900
575.94	170.300
576.27	170.300
576.61	169.300
576.94	170.600
577.27	169.100
577.61	169.700
577.94	169.200
578.27	169.400
578.61	169.700
578.94	170.800
579.27	170.500
579.60	168.800
579.94	170.800
580.27	169.800
580.60	170.100
580.93	169.400
581.27	171.600
581.60	171.000
581.93	170.600
582.27	171.600
582.60	169.800
582.93	170.400
583.26	171.200
583.59	170.200
583.93	170.100
584.26	170.200
584.59	170.100
584.92	170.000
585.26	169.800
585.59	170.700
585.92	171.200
586.25	170.600
586.58	170.500
586.92	170.500
587.25	171.200
587.58	168.700
587.91	170.700
588.24	168.800
588.57	170.700
588.91	170.800
589.24	169.200
589.57	169.600
589.90	170.000
590.23	168.900
590.56	169.800
590.90	170.000
591.23	169.700
591.56	168.600
591.89	169.200
592.22	168.800
592.55	169.200
592.88	170.300
593.21	170.400
593.55	170.700
593.88	169.200
594.21	170.100
594.54	170.900
594.87	170.300
595.20	171.100
595.53	169.800
595.86	168.600
596.19	170.600
596.52	170.300
596.85	169.800
597.19	170.400
597.52	171.500
597.85	169.300
598.18	170.600
598.51	171.200
598.84	170.300
599.17	170.800
599.50	171.000
599.83	171.000
600.16	170.600
600.49	169.700
600.82	170.100
601.15	168.300
601.48	168.600
601.81	168.900
602.14	170.900
602.47	170.400
602.80	169.100
603.13	169.700
603.46	169.000
603.79	169.600
604.12	169.300
604.45	170.800
604.78	169.100
605.11	169.600
605.44	170.300
605.77	171.000
606.10	170.200
606.43	167.600
606.76	170.100
607.08	168.500
607.41	169.500
607.74	169.800
608.07	172.000
608.40	170.000
608.73	170.500
609.06	169.100
609.39	169.000
609.72	168.700
610.05	170.400
610.38	171.100
610.71	170.200
611.03	170.500
611.36	170.300
611.69	170.800
612.02	171.600
612.35	170.300
612.68	170.100
613.01	169.900
613.33	168.600
613.66	170.800
613.99	169.800
614.32	167.000
614.65	169.300
614.98	168.900
615.31	170.700
615.63	169.300
615.96	169.400
