OOIBase32 Version 2.0.6.5 Data File
++++++++++++++++++++++++++++++++++++
Date: 03-07-2023, 14:26:03
User: Valued Ocean Optics Customer
Spectrometer Serial Number: USB2E099
Spectrometer Channel: Master
Integration Time (msec): 10
Spectra Averaged: 10
Boxcar Smoothing: 0
Correct for Electrical Dark: Disabled
Time Normalized: Disabled
Dual-beam Reference: Disabled
Reference Channel: Master
Temperature: Not acquired
Spectrometer Type: S2000
ADC Type: USB2000
Number of Pixels in File: 2048
Graph Title: 
>>>>>Begin Spectral Data<<<<<
188.69	0.000
189.07	158.100
189.44	159.300
189.82	161.700
190.19	162.000
190.56	162.600
190.94	164.900
191.31	165.400
191.68	165.400
192.06	166.100
192.43	166.600
192.80	166.800
193.18	168.700
193.55	168.800
193.92	167.800
194.30	167.300
194.67	166.100
195.04	166.200
195.42	166.500
195.79	166.100
196.16	166.300
196.54	165.900
196.91	167.500
197.28	166.100
197.66	166.800
198.03	168.800
198.40	168.100
198.78	167.600
199.15	167.400
199.52	166.500
199.89	168.000
200.27	170.000
200.64	168.500
201.01	167.900
201.39	168.800
201.76	169.300
202.13	167.100
202.50	168.300
202.88	169.800
203.25	169.500
203.62	170.700
203.99	168.800
204.37	168.700
204.74	169.200
205.11	168.400
205.48	169.200
205.85	169.900
206.23	168.400
206.60	167.800
206.97	168.900
207.34	169.600
207.72	169.600
208.09	169.300
208.46	169.400
208.83	168.300
209.20	169.900
209.58	169.900
209.95	169.100
210.32	170.500
210.69	169.200
211.06	169.200
211.44	171.200
211.81	170.800
212.18	170.400
212.55	169.900
212.92	171.200
213.29	171.400
213.67	170.500
214.04	169.600
214.41	170.100
214.78	170.400
215.15	170.300
215.52	171.000
215.89	170.600
216.27	169.700
216.64	170.400
217.01	170.800
217.38	171.800
217.75	171.700
218.12	172.200
218.49	169.800
218.86	171.600
219.24	173.400
219.61	171.600
219.98	171.200
220.35	171.200
220.72	171.800
221.09	170.900
221.46	172.000
221.83	172.200
222.20	171.800
222.57	171.200
222.94	171.200
223.32	172.500
223.69	172.600
224.06	172.200
224.43	171.500
224.80	172.100
225.17	170.200
225.54	170.500
225.91	172.800
226.28	173.000
226.65	173.500
227.02	172.300
227.39	172.000
227.76	170.900
228.13	173.400
228.50	172.300
228.87	173.100
229.24	172.500
229.61	171.900
229.98	172.400
230.35	171.400
230.72	172.000
231.09	172.700
231.46	173.100
231.83	173.100
232.20	172.300
232.57	171.700
232.94	172.000
233.31	171.400
233.68	172.800
234.05	172.300
234.42	172.400
234.79	172.000
235.16	172.300
235.53	173.000
235.90	173.000
236.27	172.000
236.64	173.200
237.01	173.600
237.38	172.800
237.75	173.100
238.12	173.400
238.49	170.400
238.86	172.300
239.22	172.100
239.59	173.100
239.96	173.300
240.33	173.700
240.70	172.800
241.07	173.500
241.44	172.000
241.81	173.300
242.18	173.200
242.55	172.500
242.92	172.400
243.28	174.800
243.65	173.000
244.02	172.700
244.39	172.800
244.76	173.400
245.13	173.300
245.50	171.900
245.87	172.200
246.23	173.300
246.60	174.000
246.97	173.100
247.34	173.500
247.71	173.100
248.08	173.800
248.45	172.100
248.81	173.400
249.18	174.200
249.55	173.800
249.92	173.900
250.29	174.000
250.66	174.200
251.02	172.600
251.39	174.000
251.76	173.800
252.13	173.900
252.50	173.100
252.86	172.600
253.23	172.400
253.60	174.000
253.97	173.800
254.34	172.800
254.70	173.400
255.07	173.400
255.44	174.300
255.81	173.600
256.17	173.300
256.54	173.700
256.91	172.600
257.28	173.700
257.65	174.600
258.01	175.100
258.38	175.400
258.75	173.300
259.12	172.500
259.48	175.600
259.85	174.200
260.22	175.700
260.58	176.000
260.95	174.600
261.32	174.700
261.69	173.400
262.05	173.000
262.42	173.800
262.79	173.700
263.15	174.900
263.52	175.100
263.89	174.800
264.26	173.600
264.62	174.100
264.99	174.300
265.36	173.700
265.72	173.900
266.09	174.600
266.46	175.500
266.82	172.700
267.19	176.000
267.56	174.100
267.92	173.700
268.29	175.100
268.66	174.300
269.02	175.100
269.39	173.500
269.76	174.800
270.12	173.900
270.49	175.700
270.85	175.400
271.22	175.700
271.59	174.100
271.95	174.500
272.32	173.100
272.69	174.500
273.05	175.100
273.42	175.500
273.78	173.700
274.15	176.800
274.52	175.600
274.88	175.600
275.25	176.000
275.61	175.900
275.98	177.300
276.35	175.900
276.71	176.600
277.08	173.900
277.44	175.300
277.81	175.700
278.17	174.700
278.54	176.000
278.91	175.500
279.27	177.300
279.64	176.300
280.00	174.200
280.37	175.800
280.73	175.000
281.10	176.200
281.46	177.600
281.83	175.600
282.19	175.900
282.56	176.500
282.92	175.200
283.29	176.000
283.65	175.800
284.02	175.200
284.38	176.400
284.75	175.900
285.11	176.600
285.48	175.100
285.84	174.800
286.21	177.100
286.57	175.300
286.94	177.000
287.30	175.600
287.67	177.000
288.03	175.500
288.40	175.700
288.76	176.000
289.13	176.000
289.49	176.900
289.86	175.800
290.22	177.400
290.58	176.400
290.95	176.400
291.31	175.600
291.68	176.900
292.04	174.200
292.41	174.600
292.77	176.000
293.14	176.800
293.50	175.500
293.86	176.100
294.23	178.900
294.59	176.200
294.96	179.500
295.32	178.000
295.68	176.700
296.05	176.700
296.41	176.600
296.78	175.600
297.14	176.900
297.50	178.400
297.87	178.700
298.23	177.900
298.59	177.100
298.96	176.400
299.32	178.700
299.68	178.900
300.05	179.900
300.41	177.700
300.78	178.400
301.14	178.400
301.50	178.500
301.87	176.300
302.23	179.200
302.59	177.800
302.96	177.500
303.32	177.100
303.68	178.300
304.04	177.000
304.41	178.000
304.77	178.800
305.13	177.300
305.50	177.700
305.86	178.000
306.22	179.700
306.59	178.600
306.95	178.300
307.31	179.600
307.67	180.000
308.04	179.600
308.40	180.000
308.76	180.200
309.13	178.300
309.49	179.900
309.85	179.700
310.21	177.700
310.58	179.600
310.94	179.800
311.30	179.500
311.66	179.300
312.03	181.700
312.39	180.100
312.75	179.400
313.11	180.300
313.47	180.700
313.84	180.000
314.20	180.600
314.56	181.700
314.92	184.400
315.28	181.400
315.65	182.300
316.01	182.800
316.37	181.300
316.73	183.700
317.09	181.100
317.46	182.900
317.82	181.300
318.18	183.000
318.54	182.500
318.90	180.200
319.26	182.900
319.63	184.000
319.99	181.800
320.35	182.600
320.71	184.600
321.07	184.500
321.43	186.000
321.80	185.700
322.16	185.100
322.52	184.400
322.88	184.000
323.24	185.600
323.60	188.600
323.96	187.000
324.32	187.200
324.69	184.900
325.05	188.700
325.41	186.300
325.77	187.400
326.13	187.800
326.49	187.700
326.85	188.400
327.21	188.700
327.57	187.500
327.93	190.400
328.29	191.300
328.66	189.600
329.02	191.200
329.38	190.800
329.74	191.900
330.10	191.900
330.46	192.400
330.82	191.900
331.18	191.700
331.54	193.100
331.90	192.900
332.26	195.200
332.62	194.400
332.98	196.600
333.34	193.200
333.70	196.100
334.06	197.200
334.42	195.900
334.78	196.000
335.14	198.600
335.50	197.300
335.86	198.900
336.22	200.600
336.58	200.600
336.94	201.200
337.30	202.100
337.66	200.500
338.02	202.500
338.38	202.400
338.74	205.800
339.10	204.200
339.46	204.200
339.82	204.400
340.18	206.500
340.54	207.200
340.90	208.600
341.26	207.900
341.62	207.200
341.98	209.900
342.34	209.900
342.70	211.300
343.05	213.700
343.41	211.200
343.77	214.200
344.13	213.900
344.49	215.100
344.85	213.800
345.21	217.700
345.57	215.600
345.93	215.500
346.29	218.400
346.65	219.400
347.00	221.200
347.36	222.500
347.72	222.000
348.08	224.000
348.44	225.600
348.80	224.900
349.16	226.500
349.52	227.800
349.87	227.700
350.23	228.000
350.59	230.100
350.95	229.000
351.31	230.100
351.67	231.000
352.03	233.300
352.38	234.000
352.74	234.500
353.10	235.700
353.46	234.100
353.82	235.900
354.17	239.200
354.53	239.100
354.89	239.000
355.25	237.100
355.61	240.500
355.97	242.900
356.32	242.500
356.68	241.500
357.04	244.000
357.40	246.300
357.75	244.600
358.11	246.000
358.47	245.300
358.83	246.000
359.19	246.000
359.54	248.100
359.90	251.100
360.26	251.500
360.62	252.500
360.97	253.900
361.33	253.900
361.69	253.100
362.05	255.400
362.40	256.000
362.76	257.100
363.12	260.900
363.47	261.000
363.83	261.500
364.19	265.300
364.55	262.200
364.90	267.900
365.26	267.600
365.62	271.600
365.97	271.000
366.33	273.100
366.69	272.600
367.04	277.100
367.40	278.100
367.76	279.900
368.11	278.700
368.47	283.700
368.83	285.200
369.18	288.200
369.54	286.100
369.90	287.700
370.25	290.500
370.61	287.400
370.97	295.000
371.32	294.800
371.68	296.600
372.04	298.400
372.39	297.900
372.75	297.800
373.11	304.300
373.46	304.100
373.82	304.600
374.17	306.900
374.53	310.100
374.89	312.000
375.24	317.700
375.60	317.800
375.95	323.000
376.31	319.900
376.67	321.400
377.02	319.800
377.38	323.800
377.73	322.700
378.09	320.600
378.44	321.200
378.80	323.700
379.16	323.200
379.51	334.100
379.87	337.900
380.22	338.000
380.58	343.000
380.93	339.800
381.29	347.100
381.64	356.600
382.00	356.600
382.35	354.200
382.71	376.100
383.06	372.700
383.42	377.000
383.77	384.600
384.13	382.400
384.49	390.200
384.84	402.400
385.20	403.400
385.55	412.400
385.90	404.600
386.26	409.200
386.61	417.200
386.97	417.400
387.32	429.900
387.68	431.000
388.03	431.900
388.39	434.000
388.74	455.000
389.10	453.200
389.45	446.900
389.81	447.800
390.16	450.500
390.52	459.000
390.87	467.400
391.22	479.100
391.58	472.400
391.93	472.600
392.29	485.600
392.64	487.800
393.00	486.000
393.35	491.700
393.70	499.000
394.06	504.500
394.41	510.400
394.77	511.100
395.12	507.900
395.47	522.600
395.83	524.800
396.18	524.400
396.53	529.300
396.89	536.300
397.24	532.400
397.60	540.400
397.95	547.700
398.30	530.700
398.66	547.500
399.01	547.300
399.36	550.700
399.72	554.800
400.07	560.000
400.42	555.300
400.78	556.600
401.13	570.800
401.48	571.800
401.84	572.800
402.19	595.800
402.54	584.200
402.90	577.800
403.25	580.600
403.60	590.300
403.96	599.500
404.31	619.400
404.66	614.600
405.01	617.400
405.37	604.300
405.72	616.600
406.07	629.100
406.43	621.500
406.78	635.400
407.13	647.200
407.48	643.900
407.84	659.800
408.19	675.800
408.54	675.100
408.89	681.700
409.25	688.300
409.60	687.900
409.95	670.700
410.30	684.700
410.66	712.300
411.01	736.800
411.36	734.700
411.71	741.600
412.06	749.500
412.42	752.800
412.77	775.000
413.12	750.900
413.47	769.600
413.82	751.400
414.18	797.600
414.53	779.400
414.88	795.900
415.23	795.900
415.58	791.800
415.93	804.900
416.29	785.100
416.64	833.100
416.99	837.400
417.34	840.100
417.69	831.400
418.04	848.300
418.40	852.400
418.75	877.700
419.10	869.000
419.45	859.900
419.80	858.400
420.15	877.100
420.50	865.800
420.86	866.300
421.21	867.200
421.56	880.900
421.91	862.400
422.26	886.800
422.61	879.300
422.96	896.700
423.31	919.800
423.66	924.300
424.01	899.900
424.36	878.500
424.72	893.500
425.07	946.800
425.42	909.600
425.77	939.000
426.12	927.500
426.47	886.000
426.82	944.500
427.17	951.500
427.52	933.000
427.87	964.200
428.22	973.100
428.57	995.600
428.92	977.200
429.27	967.800
429.62	1000.000
429.97	995.800
430.32	1019.200
430.67	1009.700
431.02	1040.600
431.37	1049.400
431.72	1041.600
432.07	1027.200
432.42	1054.800
432.77	1037.700
433.12	1071.100
433.47	1091.000
433.82	1104.300
434.17	1083.200
434.52	1124.700
434.87	1154.300
435.22	1164.200
435.57	1146.200
435.92	1120.000
436.27	1176.700
436.62	1185.500
436.97	1214.200
437.32	1192.300
437.67	1142.400
438.02	1218.300
438.37	1274.600
438.72	1183.800
439.06	1163.600
439.41	1221.200
439.76	1271.500
440.11	1246.200
440.46	1287.600
440.81	1234.800
441.16	1227.500
441.51	1236.800
441.86	1266.500
442.21	1245.000
442.55	1264.900
442.90	1269.500
443.25	1221.400
443.60	1307.800
443.95	1301.100
444.30	1313.400
444.65	1277.900
445.00	1227.600
445.34	1285.200
445.69	1295.100
446.04	1283.100
446.39	1311.200
446.74	1315.900
447.09	1347.300
447.43	1333.300
447.78	1291.200
448.13	1317.200
448.48	1329.600
448.83	1324.400
449.18	1343.500
449.52	1340.500
449.87	1335.500
450.22	1335.200
450.57	1332.500
450.92	1354.500
451.26	1328.500
451.61	1407.200
451.96	1364.500
452.31	1395.400
452.65	1396.600
453.00	1361.600
453.35	1356.100
453.70	1383.100
454.04	1360.400
454.39	1342.500
454.74	1376.100
455.09	1382.800
455.43	1435.200
455.78	1402.200
456.13	1459.800
456.48	1408.900
456.82	1530.300
457.17	1492.400
457.52	1475.300
457.87	1515.300
458.21	1517.700
458.56	1507.400
458.91	1535.100
459.25	1578.300
459.60	1555.300
459.95	1522.800
460.29	1528.200
460.64	1637.500
460.99	1600.600
461.33	1470.500
461.68	1592.800
462.03	1627.200
462.37	1637.400
462.72	1625.500
463.07	1671.400
463.41	1664.100
463.76	1670.000
464.11	1650.100
464.45	1703.100
464.80	1677.000
465.15	1690.600
465.49	1729.200
465.84	1716.600
466.19	1664.600
466.53	1732.700
466.88	1723.100
467.22	1696.400
467.57	1625.100
467.92	1708.700
468.26	1724.700
468.61	1763.500
468.95	1762.500
469.30	1730.700
469.65	1744.400
469.99	1759.300
470.34	1816.500
470.68	1750.200
471.03	1804.200
471.37	1768.600
471.72	1764.600
472.07	1791.300
472.41	1777.000
472.76	1826.700
473.10	1815.100
473.45	1835.800
473.79	1849.900
474.14	1793.500
474.48	1807.300
474.83	1828.700
475.17	1841.700
475.52	1832.800
475.86	1842.900
476.21	1794.900
476.55	1811.500
476.90	1817.200
477.24	1848.300
477.59	1826.300
477.93	1846.800
478.28	1856.400
478.62	1876.900
478.97	1886.800
479.31	1885.900
479.66	1894.000
480.00	1914.200
480.35	1898.400
480.69	1898.100
481.04	1920.600
481.38	1941.100
481.72	1932.300
482.07	1928.200
482.41	1963.500
482.76	1997.700
483.10	2017.100
483.45	2006.500
483.79	2023.200
484.13	2032.100
484.48	2051.700
484.82	2062.300
485.17	2086.600
485.51	2130.400
485.86	2119.000
486.20	2159.300
486.54	2161.500
486.89	2180.000
487.23	2186.500
487.57	2238.200
487.92	2253.200
488.26	2267.000
488.61	2296.800
488.95	2311.700
489.29	2281.000
489.64	2302.000
489.98	2334.900
490.32	2341.300
490.67	2361.700
491.01	2379.600
491.35	2413.700
491.70	2407.700
492.04	2387.300
492.38	2400.600
492.73	2437.500
493.07	2482.400
493.41	2489.200
493.76	2515.800
494.10	2500.300
494.44	2478.300
494.79	2504.400
495.13	2529.500
495.47	2542.800
495.81	2559.300
496.16	2580.400
496.50	2567.600
496.84	2562.800
497.18	2545.500
497.53	2579.900
497.87	2575.600
498.21	2600.400
498.56	2598.300
498.90	2595.900
499.24	2610.000
499.58	2627.200
499.93	2608.000
500.27	2583.800
500.61	2571.200
500.95	2580.500
501.29	2608.900
501.64	2626.500
501.98	2623.500
502.32	2599.200
502.66	2592.400
503.00	2613.900
503.35	2605.000
503.69	2589.800
504.03	2602.900
504.37	2599.200
504.71	2602.600
505.06	2598.200
505.40	2572.800
505.74	2597.300
506.08	2602.600
506.42	2577.200
506.76	2559.600
507.11	2569.800
507.45	2553.600
507.79	2543.300
508.13	2554.700
508.47	2554.400
508.81	2570.200
509.15	2579.800
509.50	2542.000
509.84	2528.600
510.18	2527.900
510.52	2536.300
510.86	2548.500
511.20	2536.200
511.54	2522.700
511.88	2532.000
512.22	2552.600
512.57	2534.900
512.91	2551.400
513.25	2538.800
513.59	2541.200
513.93	2533.100
514.27	2527.200
514.61	2531.400
514.95	2520.600
515.29	2516.800
515.63	2524.100
515.97	2552.400
516.31	2536.100
516.65	2546.600
516.99	2551.700
517.33	2578.800
517.67	2566.800
518.01	2576.200
518.35	2583.200
518.69	2606.600
519.03	2592.900
519.38	2585.400
519.72	2610.100
520.06	2604.500
520.40	2620.800
520.74	2623.100
521.07	2650.700
521.41	2653.600
521.75	2658.200
522.09	2669.500
522.43	2689.500
522.77	2705.900
523.11	2722.500
523.45	2714.000
523.79	2738.200
524.13	2759.300
524.47	2777.400
524.81	2796.100
525.15	2797.700
525.49	2825.300
525.83	2815.500
526.17	2834.500
526.51	2842.200
526.85	2880.400
527.19	2898.700
527.53	2930.900
527.86	2928.300
528.20	2930.000
528.54	2920.200
528.88	2944.900
529.22	2933.300
529.56	2955.500
529.90	2998.100
530.24	3008.900
530.58	3018.300
530.91	3025.700
531.25	3045.600
531.59	3045.800
531.93	3047.900
532.27	3058.800
532.61	3062.900
532.95	3082.200
533.29	3089.800
533.62	3094.300
533.96	3105.500
534.30	3120.500
534.64	3091.900
534.98	3103.900
535.32	3086.000
535.65	3114.700
535.99	3109.100
536.33	3089.900
536.67	3101.600
537.01	3105.700
537.34	3117.600
537.68	3106.200
538.02	3133.300
538.36	3100.200
538.70	3112.300
539.03	3092.900
539.37	3109.400
539.71	3087.600
540.05	3102.100
540.38	3069.400
540.72	3085.000
541.06	3081.200
541.40	3067.100
541.73	3059.100
542.07	3030.800
542.41	3035.800
542.75	3026.000
543.08	2999.500
543.42	3022.100
543.76	2995.700
544.09	2988.800
544.43	2996.000
544.77	2949.300
545.11	2950.800
545.44	2909.100
545.78	2912.000
546.12	2910.100
546.45	2889.200
546.79	2901.700
547.13	2894.000
547.46	2887.200
547.80	2880.500
548.14	2863.500
548.47	2864.400
548.81	2835.500
549.15	2863.200
549.48	2860.000
549.82	2843.800
550.16	2839.300
550.49	2813.000
550.83	2813.100
551.17	2788.200
551.50	2798.200
551.84	2778.800
552.17	2744.100
552.51	2740.600
552.85	2767.600
553.18	2753.100
553.52	2772.700
553.86	2759.500
554.19	2761.700
554.53	2757.100
554.86	2757.100
555.20	2756.900
555.53	2734.500
555.87	2718.000
556.21	2739.800
556.54	2726.300
556.88	2758.700
557.21	2754.800
557.55	2761.500
557.88	2798.000
558.22	2741.900
558.55	2709.800
558.89	2725.700
559.23	2732.000
559.56	2712.000
559.90	2731.300
560.23	2756.900
560.57	2768.900
560.90	2745.600
561.24	2786.100
561.57	2717.900
561.91	2752.400
562.24	2803.500
562.58	2786.900
562.91	2802.800
563.25	2785.500
563.58	2825.800
563.92	2817.500
564.25	2845.500
564.59	2825.900
564.92	2846.300
565.25	2838.700
565.59	2846.400
565.92	2882.100
566.26	2889.400
566.59	2929.500
566.93	2938.600
567.26	2952.700
567.60	2939.300
567.93	2948.600
568.26	2927.900
568.60	2947.100
568.93	2939.800
569.27	2996.800
569.60	3012.100
569.93	3030.600
570.27	3040.300
570.60	3037.700
570.94	3047.700
571.27	3078.700
571.60	3062.800
571.94	3080.000
572.27	3093.700
572.61	3115.300
572.94	3118.800
573.27	3128.300
573.61	3166.100
573.94	3185.200
574.27	3168.200
574.61	3194.200
574.94	3196.000
575.27	3203.100
575.61	3201.400
575.94	3203.900
576.27	3235.300
576.61	3238.900
576.94	3243.400
577.27	3233.300
577.61	3245.100
577.94	3275.300
578.27	3297.400
578.61	3311.500
578.94	3311.100
579.27	3289.800
579.60	3280.900
579.94	3306.600
580.27	3311.700
580.60	3313.700
580.93	3299.300
581.27	3314.100
581.60	3342.200
581.93	3369.600
582.27	3351.400
582.60	3348.700
582.93	3355.200
583.26	3352.600
583.59	3353.900
583.93	3317.600
584.26	3309.300
584.59	3313.100
584.92	3321.800
585.26	3311.600
585.59	3313.600
585.92	3300.300
586.25	3268.800
586.58	3277.400
586.92	3298.200
587.25	3285.000
587.58	3276.200
587.91	3257.900
588.24	3246.400
588.57	3243.400
588.91	3200.700
589.24	3202.800
589.57	3192.600
589.90	3163.300
590.23	3157.100
590.56	3154.600
590.90	3175.000
591.23	3157.100
591.56	3150.700
591.89	3139.900
592.22	3145.300
592.55	3140.400
592.88	3099.400
593.21	3079.600
593.55	3059.300
593.88	3061.200
594.21	3046.400
594.54	3031.400
594.87	3031.800
595.20	3034.100
595.53	3056.600
595.86	3036.000
596.19	3025.400
596.52	2971.700
596.85	2960.300
597.19	2959.500
597.52	2949.100
597.85	2946.700
598.18	2948.300
598.51	2935.500
598.84	2918.600
599.17	2890.100
599.50	2899.800
599.83	2907.800
600.16	2899.000
600.49	2886.500
600.82	2851.800
601.15	2857.600
601.48	2876.400
601.81	2880.400
602.14	2847.100
602.47	2845.600
602.80	2840.700
603.13	2848.900
603.46	2863.700
603.79	2850.800
604.12	2839.600
604.45	2807.300
604.78	2824.800
605.11	2819.300
605.44	2811.600
